# Pbox  18500.00  10 4095  0.0     0    1.0000 0.12760     4
# VJ3.0  pw (us)  pwr  pwrf  dres  dmf  dcyc   B1max (kHz)  Stype
# ---------------------------------------------------------------
# Pxsim 0.0185000 126.5602 1.000 600.0 0.0000000 0.0000000 0.00
# data: pw (s) B1max (Hz) status sw (Hz) T1 (s)   T2 (s) RDC (Hz)
# ---------------------------------------------------------------
# Pbox.inp data :
# ~~~~~~~~~~~~~~~~~~~~~~~~~~~Waves~~~~~~~~~~~~~~~~~~~~~~~~~~~~~~~~~~
#   shape   bw(/pw)   ofs  st  ph  fla  trev  d1  d2   d0   wrp  php
# ~~~~~~~~~~~~~~~~~~~~~~~~~~~~~~~~~~~~~~~~~~~~~~~~~~~~~~~~~~~~~~~~~~
# { rsnob 100.0 0 1 0.000 180.0 }
#
# type      = r          mod       = n          dres      = n         
# steps     = n          stepsize  = 10.00      attn      = i         
# refofs    = n          wrap      = n          sfrq      = n         
# sucyc     = d          reps      = 4.000000   header    = y         
# bscor     = n          pad1      = n          pad2      = n         
# bsim      = n          T1        = n          T2        = n         
# rdc       = n          dcyc      = n          sw        = n         
#
# RF Calibration Data :  ref_pwr   = 58         ref_pw90  = 7.80
# ~~~~~~~~~~~~~~~~~~~~~
###
# ------------------- Shape data ------------------
# pwtot      = 0.0185000 (total pw, s)
# power      = 10 (power level, dB)
# pwrf       = 4095 (fine power)
# B1max      = 0.1276 (B1max, kHz)
# B1rms      = 0.0559 (B1[RMS], kHz)
# nptot      = 1850 (total number of steps)
# stepsize   = 10.00 (length of a single step, us)
# maxamp     = 1015.7 (max amplitude)
# ------------------------------------------------- 
#      phase      amplitude   length     gate 
# ------------------------------------------------- 
        0.00      1023.00      0.0        0
     180.000       51.264      1.0        1
     180.000       51.267      1.0        1
     180.000       51.276      1.0        1
     180.000       51.290      1.0        1
     180.000       51.311      1.0        1
     180.000       51.337      1.0        1
     180.000       51.370      1.0        1
     180.000       51.408      1.0        1
     180.000       51.452      1.0        1
     180.000       51.502      1.0        1
     180.000       51.558      1.0        1
     180.000       51.620      1.0        1
     180.000       51.687      1.0        1
     180.000       51.761      1.0        1
     180.000       51.840      1.0        1
     180.000       51.925      1.0        1
     180.000       52.016      1.0        1
     180.000       52.112      1.0        1
     180.000       52.215      1.0        1
     180.000       52.323      1.0        1
     180.000       52.437      1.0        1
     180.000       52.556      1.0        1
     180.000       52.682      1.0        1
     180.000       52.813      1.0        1
     180.000       52.949      1.0        1
     180.000       53.091      1.0        1
     180.000       53.239      1.0        1
     180.000       53.393      1.0        1
     180.000       53.552      1.0        1
     180.000       53.717      1.0        1
     180.000       53.887      1.0        1
     180.000       54.063      1.0        1
     180.000       54.244      1.0        1
     180.000       54.431      1.0        1
     180.000       54.623      1.0        1
     180.000       54.821      1.0        1
     180.000       55.024      1.0        1
     180.000       55.232      1.0        1
     180.000       55.446      1.0        1
     180.000       55.665      1.0        1
     180.000       55.889      1.0        1
     180.000       56.118      1.0        1
     180.000       56.353      1.0        1
     180.000       56.593      1.0        1
     180.000       56.838      1.0        1
     180.000       57.088      1.0        1
     180.000       57.343      1.0        1
     180.000       57.603      1.0        1
     180.000       57.868      1.0        1
     180.000       58.138      1.0        1
     180.000       58.413      1.0        1
     180.000       58.693      1.0        1
     180.000       58.978      1.0        1
     180.000       59.268      1.0        1
     180.000       59.562      1.0        1
     180.000       59.861      1.0        1
     180.000       60.164      1.0        1
     180.000       60.473      1.0        1
     180.000       60.786      1.0        1
     180.000       61.103      1.0        1
     180.000       61.425      1.0        1
     180.000       61.751      1.0        1
     180.000       62.082      1.0        1
     180.000       62.417      1.0        1
     180.000       62.757      1.0        1
     180.000       63.100      1.0        1
     180.000       63.448      1.0        1
     180.000       63.800      1.0        1
     180.000       64.156      1.0        1
     180.000       64.517      1.0        1
     180.000       64.881      1.0        1
     180.000       65.249      1.0        1
     180.000       65.621      1.0        1
     180.000       65.997      1.0        1
     180.000       66.377      1.0        1
     180.000       66.760      1.0        1
     180.000       67.148      1.0        1
     180.000       67.539      1.0        1
     180.000       67.933      1.0        1
     180.000       68.331      1.0        1
     180.000       68.732      1.0        1
     180.000       69.137      1.0        1
     180.000       69.545      1.0        1
     180.000       69.957      1.0        1
     180.000       70.372      1.0        1
     180.000       70.790      1.0        1
     180.000       71.211      1.0        1
     180.000       71.635      1.0        1
     180.000       72.062      1.0        1
     180.000       72.492      1.0        1
     180.000       72.925      1.0        1
     180.000       73.361      1.0        1
     180.000       73.799      1.0        1
     180.000       74.241      1.0        1
     180.000       74.684      1.0        1
     180.000       75.131      1.0        1
     180.000       75.580      1.0        1
     180.000       76.031      1.0        1
     180.000       76.485      1.0        1
     180.000       76.941      1.0        1
     180.000       77.400      1.0        1
     180.000       77.860      1.0        1
     180.000       78.323      1.0        1
     180.000       78.788      1.0        1
     180.000       79.254      1.0        1
     180.000       79.723      1.0        1
     180.000       80.194      1.0        1
     180.000       80.666      1.0        1
     180.000       81.140      1.0        1
     180.000       81.616      1.0        1
     180.000       82.093      1.0        1
     180.000       82.572      1.0        1
     180.000       83.053      1.0        1
     180.000       83.534      1.0        1
     180.000       84.017      1.0        1
     180.000       84.502      1.0        1
     180.000       84.987      1.0        1
     180.000       85.474      1.0        1
     180.000       85.962      1.0        1
     180.000       86.450      1.0        1
     180.000       86.940      1.0        1
     180.000       87.431      1.0        1
     180.000       87.922      1.0        1
     180.000       88.414      1.0        1
     180.000       88.906      1.0        1
     180.000       89.400      1.0        1
     180.000       89.893      1.0        1
     180.000       90.388      1.0        1
     180.000       90.882      1.0        1
     180.000       91.377      1.0        1
     180.000       91.872      1.0        1
     180.000       92.367      1.0        1
     180.000       92.862      1.0        1
     180.000       93.358      1.0        1
     180.000       93.853      1.0        1
     180.000       94.348      1.0        1
     180.000       94.843      1.0        1
     180.000       95.338      1.0        1
     180.000       95.832      1.0        1
     180.000       96.326      1.0        1
     180.000       96.820      1.0        1
     180.000       97.313      1.0        1
     180.000       97.805      1.0        1
     180.000       98.297      1.0        1
     180.000       98.788      1.0        1
     180.000       99.278      1.0        1
     180.000       99.767      1.0        1
     180.000      100.255      1.0        1
     180.000      100.743      1.0        1
     180.000      101.229      1.0        1
     180.000      101.714      1.0        1
     180.000      102.198      1.0        1
     180.000      102.680      1.0        1
     180.000      103.162      1.0        1
     180.000      103.641      1.0        1
     180.000      104.120      1.0        1
     180.000      104.596      1.0        1
     180.000      105.072      1.0        1
     180.000      105.545      1.0        1
     180.000      106.017      1.0        1
     180.000      106.486      1.0        1
     180.000      106.954      1.0        1
     180.000      107.420      1.0        1
     180.000      107.884      1.0        1
     180.000      108.346      1.0        1
     180.000      108.806      1.0        1
     180.000      109.263      1.0        1
     180.000      109.718      1.0        1
     180.000      110.171      1.0        1
     180.000      110.621      1.0        1
     180.000      111.069      1.0        1
     180.000      111.515      1.0        1
     180.000      111.957      1.0        1
     180.000      112.398      1.0        1
     180.000      112.835      1.0        1
     180.000      113.269      1.0        1
     180.000      113.701      1.0        1
     180.000      114.130      1.0        1
     180.000      114.556      1.0        1
     180.000      114.979      1.0        1
     180.000      115.398      1.0        1
     180.000      115.815      1.0        1
     180.000      116.228      1.0        1
     180.000      116.638      1.0        1
     180.000      117.045      1.0        1
     180.000      117.448      1.0        1
     180.000      117.848      1.0        1
     180.000      118.244      1.0        1
     180.000      118.637      1.0        1
     180.000      119.026      1.0        1
     180.000      119.411      1.0        1
     180.000      119.793      1.0        1
     180.000      120.171      1.0        1
     180.000      120.545      1.0        1
     180.000      120.915      1.0        1
     180.000      121.281      1.0        1
     180.000      121.643      1.0        1
     180.000      122.001      1.0        1
     180.000      122.355      1.0        1
     180.000      122.705      1.0        1
     180.000      123.051      1.0        1
     180.000      123.392      1.0        1
     180.000      123.729      1.0        1
     180.000      124.061      1.0        1
     180.000      124.389      1.0        1
     180.000      124.713      1.0        1
     180.000      125.032      1.0        1
     180.000      125.347      1.0        1
     180.000      125.657      1.0        1
     180.000      125.962      1.0        1
     180.000      126.262      1.0        1
     180.000      126.558      1.0        1
     180.000      126.849      1.0        1
     180.000      127.135      1.0        1
     180.000      127.416      1.0        1
     180.000      127.693      1.0        1
     180.000      127.964      1.0        1
     180.000      128.230      1.0        1
     180.000      128.491      1.0        1
     180.000      128.747      1.0        1
     180.000      128.998      1.0        1
     180.000      129.243      1.0        1
     180.000      129.484      1.0        1
     180.000      129.719      1.0        1
     180.000      129.949      1.0        1
     180.000      130.173      1.0        1
     180.000      130.392      1.0        1
     180.000      130.605      1.0        1
     180.000      130.813      1.0        1
     180.000      131.016      1.0        1
     180.000      131.213      1.0        1
     180.000      131.404      1.0        1
     180.000      131.590      1.0        1
     180.000      131.770      1.0        1
     180.000      131.944      1.0        1
     180.000      132.113      1.0        1
     180.000      132.276      1.0        1
     180.000      132.433      1.0        1
     180.000      132.584      1.0        1
     180.000      132.730      1.0        1
     180.000      132.869      1.0        1
     180.000      133.003      1.0        1
     180.000      133.130      1.0        1
     180.000      133.252      1.0        1
     180.000      133.368      1.0        1
     180.000      133.477      1.0        1
     180.000      133.581      1.0        1
     180.000      133.678      1.0        1
     180.000      133.770      1.0        1
     180.000      133.855      1.0        1
     180.000      133.934      1.0        1
     180.000      134.006      1.0        1
     180.000      134.073      1.0        1
     180.000      134.133      1.0        1
     180.000      134.187      1.0        1
     180.000      134.235      1.0        1
     180.000      134.277      1.0        1
     180.000      134.312      1.0        1
     180.000      134.341      1.0        1
     180.000      134.363      1.0        1
     180.000      134.379      1.0        1
     180.000      134.388      1.0        1
     180.000      134.392      1.0        1
     180.000      134.388      1.0        1
     180.000      134.378      1.0        1
     180.000      134.362      1.0        1
     180.000      134.339      1.0        1
     180.000      134.310      1.0        1
     180.000      134.274      1.0        1
     180.000      134.232      1.0        1
     180.000      134.183      1.0        1
     180.000      134.127      1.0        1
     180.000      134.065      1.0        1
     180.000      133.996      1.0        1
     180.000      133.921      1.0        1
     180.000      133.838      1.0        1
     180.000      133.750      1.0        1
     180.000      133.654      1.0        1
     180.000      133.552      1.0        1
     180.000      133.443      1.0        1
     180.000      133.328      1.0        1
     180.000      133.206      1.0        1
     180.000      133.077      1.0        1
     180.000      132.941      1.0        1
     180.000      132.799      1.0        1
     180.000      132.650      1.0        1
     180.000      132.494      1.0        1
     180.000      132.331      1.0        1
     180.000      132.162      1.0        1
     180.000      131.986      1.0        1
     180.000      131.803      1.0        1
     180.000      131.613      1.0        1
     180.000      131.416      1.0        1
     180.000      131.213      1.0        1
     180.000      131.003      1.0        1
     180.000      130.786      1.0        1
     180.000      130.562      1.0        1
     180.000      130.332      1.0        1
     180.000      130.094      1.0        1
     180.000      129.850      1.0        1
     180.000      129.599      1.0        1
     180.000      129.341      1.0        1
     180.000      129.077      1.0        1
     180.000      128.805      1.0        1
     180.000      128.527      1.0        1
     180.000      128.242      1.0        1
     180.000      127.950      1.0        1
     180.000      127.651      1.0        1
     180.000      127.345      1.0        1
     180.000      127.033      1.0        1
     180.000      126.714      1.0        1
     180.000      126.387      1.0        1
     180.000      126.055      1.0        1
     180.000      125.715      1.0        1
     180.000      125.368      1.0        1
     180.000      125.015      1.0        1
     180.000      124.655      1.0        1
     180.000      124.288      1.0        1
     180.000      123.914      1.0        1
     180.000      123.533      1.0        1
     180.000      123.146      1.0        1
     180.000      122.752      1.0        1
     180.000      122.351      1.0        1
     180.000      121.943      1.0        1
     180.000      121.528      1.0        1
     180.000      121.107      1.0        1
     180.000      120.679      1.0        1
     180.000      120.244      1.0        1
     180.000      119.802      1.0        1
     180.000      119.354      1.0        1
     180.000      118.898      1.0        1
     180.000      118.436      1.0        1
     180.000      117.968      1.0        1
     180.000      117.492      1.0        1
     180.000      117.010      1.0        1
     180.000      116.521      1.0        1
     180.000      116.025      1.0        1
     180.000      115.523      1.0        1
     180.000      115.014      1.0        1
     180.000      114.498      1.0        1
     180.000      113.976      1.0        1
     180.000      113.447      1.0        1
     180.000      112.911      1.0        1
     180.000      112.368      1.0        1
     180.000      111.819      1.0        1
     180.000      111.263      1.0        1
     180.000      110.701      1.0        1
     180.000      110.131      1.0        1
     180.000      109.556      1.0        1
     180.000      108.973      1.0        1
     180.000      108.384      1.0        1
     180.000      107.788      1.0        1
     180.000      107.186      1.0        1
     180.000      106.577      1.0        1
     180.000      105.962      1.0        1
     180.000      105.339      1.0        1
     180.000      104.711      1.0        1
     180.000      104.075      1.0        1
     180.000      103.434      1.0        1
     180.000      102.785      1.0        1
     180.000      102.130      1.0        1
     180.000      101.469      1.0        1
     180.000      100.801      1.0        1
     180.000      100.126      1.0        1
     180.000       99.445      1.0        1
     180.000       98.757      1.0        1
     180.000       98.063      1.0        1
     180.000       97.362      1.0        1
     180.000       96.655      1.0        1
     180.000       95.941      1.0        1
     180.000       95.221      1.0        1
     180.000       94.494      1.0        1
     180.000       93.761      1.0        1
     180.000       93.022      1.0        1
     180.000       92.276      1.0        1
     180.000       91.523      1.0        1
     180.000       90.764      1.0        1
     180.000       89.998      1.0        1
     180.000       89.226      1.0        1
     180.000       88.448      1.0        1
     180.000       87.663      1.0        1
     180.000       86.872      1.0        1
     180.000       86.074      1.0        1
     180.000       85.270      1.0        1
     180.000       84.460      1.0        1
     180.000       83.643      1.0        1
     180.000       82.819      1.0        1
     180.000       81.990      1.0        1
     180.000       81.153      1.0        1
     180.000       80.311      1.0        1
     180.000       79.462      1.0        1
     180.000       78.606      1.0        1
     180.000       77.745      1.0        1
     180.000       76.876      1.0        1
     180.000       76.002      1.0        1
     180.000       75.121      1.0        1
     180.000       74.233      1.0        1
     180.000       73.340      1.0        1
     180.000       72.440      1.0        1
     180.000       71.533      1.0        1
     180.000       70.620      1.0        1
     180.000       69.701      1.0        1
     180.000       68.775      1.0        1
     180.000       67.843      1.0        1
     180.000       66.905      1.0        1
     180.000       65.960      1.0        1
     180.000       65.009      1.0        1
     180.000       64.051      1.0        1
     180.000       63.087      1.0        1
     180.000       62.117      1.0        1
     180.000       61.140      1.0        1
     180.000       60.156      1.0        1
     180.000       59.167      1.0        1
